# GNUplot file obtained from P.G. Reinhard
# Reference for Sv-min: P. Kluepfel, P.-G. Reinhard, T. J. Buervenich, and J. A. Maruhn Phys. Rev. C 79, 034310 (2009), https://arxiv.org/abs/0804.3385
# Reference for TOV: J. Erler, C.J. Horowitz, W. Nazarewicz, M. Rafalski, and P.G. Reinhard, Phys. Rev. C 87 (2013) 044320, https://arxiv.org/abs/1211.6292
set term post eps enhanced color "TimesNewRoman,30"
set colorsequence classic
set output "errorellipsoids-SVmin-TOV.eps"
set border 15 lw 1
set tmargin 0
set bmargin 0
set lmargin 0
set rmargin 0
set style fill transparent solid 0.1 
set size 1.08,1.35
set multiplot
#
set origin 0.25,0.2
set size 0.8,1.12
set xlabel "density {/Symbol= r}_0 [fm^{-3}]"
set ylabel "bindng energy E/A [MeV]"
set xrange [0.1591:0.1635]
set yrange [-15.975:-15.863]
set xtics 0.001
set ytics 0.02
p "errorellipsoids-SVmin-TOV.gnu" i 1 u 1:2 t "SV-min" w l lt 1 lw 5,\
 "errorellipsoids-SVmin-TOV.gnu" i 3 u 1:2 t "TOV" w l lt 2 lc rgb '#00aa00' lw 5,\
 "errorellipsoids-SVmin-TOV.gnu" i 0 u 3:1:2 not w yerrorbars lt 1 lw 5 pt 7 ps 2,\
 "errorellipsoids-SVmin-TOV.gnu" i 0 u 3:1:4 not w xerrorbars lt 1 lw 5 pt 7 ps 2,\
 "errorellipsoids-SVmin-TOV.gnu" i 2 u 3:1:4 not w xerrorbars lc rgb '#00aa00' lw 5 pt 7 ps 2,\
 "errorellipsoids-SVmin-TOV.gnu" i 2 u 3:1:2 not w yerrorbars lc rgb '#00aa00' lw 5 pt 7 ps 2
#
!eps2pdf -f errorellipsoids-SVmin-TOV.eps
!rm -f errorellipsoids-SVmin-TOV.eps
!evince errorellipsoids-SVmin-TOV.pdf
q
# SV-min
# E/A  average,variance  rho0 average,variance
   -15.910      3.32045E-02   0.16108      1.19302E-03


#    rho0           E/A
  0.1598900      -15.91610    
  0.1599139      -15.90948    
  0.1599377      -15.90671    
  0.1599616      -15.90459    
  0.1599855      -15.90281    
  0.1600093      -15.90126    
  0.1600332      -15.89986    
  0.1600570      -15.89858    
  0.1600809      -15.89740    
  0.1601048      -15.89631    
  0.1601286      -15.89528    
  0.1601525      -15.89432    
  0.1601763      -15.89340    
  0.1602002      -15.89254    
  0.1602241      -15.89172    
  0.1602479      -15.89094    
  0.1602718      -15.89019    
  0.1602956      -15.88948    
  0.1603195      -15.88880    
  0.1603434      -15.88814    
  0.1603672      -15.88752    
  0.1603911      -15.88691    
  0.1604149      -15.88634    
  0.1604388      -15.88578    
  0.1604627      -15.88525    
  0.1604865      -15.88474    
  0.1605104      -15.88425    
  0.1605342      -15.88378    
  0.1605581      -15.88332    
  0.1605820      -15.88289    
  0.1606058      -15.88247    
  0.1606297      -15.88207    
  0.1606535      -15.88169    
  0.1606774      -15.88132    
  0.1607013      -15.88097    
  0.1607251      -15.88063    
  0.1607490      -15.88031    
  0.1607728      -15.88000    
  0.1607967      -15.87971    
  0.1608206      -15.87943    
  0.1608444      -15.87917    
  0.1608683      -15.87891    
  0.1608922      -15.87868    
  0.1609160      -15.87845    
  0.1609399      -15.87824    
  0.1609637      -15.87805    
  0.1609876      -15.87787    
  0.1610115      -15.87770    
  0.1610353      -15.87754    
  0.1610592      -15.87739    
  0.1610830      -15.87726    
  0.1611069      -15.87715    
  0.1611308      -15.87704    
  0.1611546      -15.87695    
  0.1611785      -15.87687    
  0.1612023      -15.87681    
  0.1612262      -15.87675    
  0.1612501      -15.87671    
  0.1612739      -15.87669    
  0.1612978      -15.87668    
  0.1613216      -15.87668    
  0.1613455      -15.87670    
  0.1613694      -15.87673    
  0.1613932      -15.87677    
  0.1614171      -15.87683    
  0.1614409      -15.87690    
  0.1614648      -15.87699    
  0.1614887      -15.87709    
  0.1615125      -15.87721    
  0.1615364      -15.87735    
  0.1615602      -15.87750    
  0.1615841      -15.87767    
  0.1616080      -15.87786    
  0.1616318      -15.87806    
  0.1616557      -15.87828    
  0.1616795      -15.87853    
  0.1617034      -15.87879    
  0.1617273      -15.87907    
  0.1617511      -15.87938    
  0.1617750      -15.87971    
  0.1617988      -15.88006    
  0.1618227      -15.88044    
  0.1618466      -15.88084    
  0.1618704      -15.88128    
  0.1618943      -15.88174    
  0.1619181      -15.88224    
  0.1619420      -15.88277    
  0.1619659      -15.88334    
  0.1619897      -15.88396    
  0.1620136      -15.88462    
  0.1620374      -15.88534    
  0.1620613      -15.88612    
  0.1620852      -15.88696    
  0.1621090      -15.88789    
  0.1621329      -15.88892    
  0.1621567      -15.89007    
  0.1621806      -15.89138    
  0.1622045      -15.89291    
  0.1622283      -15.89478    
  0.1622522      -15.89730    
  0.1622761      -15.90367    
  0.1622522      -15.91028    
  0.1622283      -15.91305    
  0.1622045      -15.91517    
  0.1621806      -15.91695    
  0.1621567      -15.91851    
  0.1621329      -15.91991    
  0.1621090      -15.92118    
  0.1620852      -15.92236    
  0.1620613      -15.92346    
  0.1620374      -15.92448    
  0.1620136      -15.92545    
  0.1619897      -15.92636    
  0.1619659      -15.92722    
  0.1619420      -15.92804    
  0.1619181      -15.92883    
  0.1618943      -15.92957    
  0.1618704      -15.93029    
  0.1618466      -15.93097    
  0.1618227      -15.93162    
  0.1617988      -15.93225    
  0.1617750      -15.93285    
  0.1617511      -15.93343    
  0.1617273      -15.93398    
  0.1617034      -15.93451    
  0.1616795      -15.93502    
  0.1616557      -15.93551    
  0.1616318      -15.93599    
  0.1616080      -15.93644    
  0.1615841      -15.93687    
  0.1615602      -15.93729    
  0.1615364      -15.93769    
  0.1615125      -15.93808    
  0.1614887      -15.93844    
  0.1614648      -15.93880    
  0.1614409      -15.93913    
  0.1614171      -15.93945    
  0.1613932      -15.93976    
  0.1613694      -15.94005    
  0.1613455      -15.94033    
  0.1613216      -15.94060    
  0.1612978      -15.94085    
  0.1612739      -15.94109    
  0.1612501      -15.94131    
  0.1612262      -15.94152    
  0.1612023      -15.94171    
  0.1611785      -15.94190    
  0.1611546      -15.94207    
  0.1611308      -15.94222    
  0.1611069      -15.94237    
  0.1610830      -15.94250    
  0.1610592      -15.94262    
  0.1610353      -15.94272    
  0.1610115      -15.94281    
  0.1609876      -15.94289    
  0.1609637      -15.94296    
  0.1609399      -15.94301    
  0.1609160      -15.94305    
  0.1608922      -15.94307    
  0.1608683      -15.94309    
  0.1608444      -15.94308    
  0.1608206      -15.94307    
  0.1607967      -15.94304    
  0.1607728      -15.94299    
  0.1607490      -15.94293    
  0.1607251      -15.94286    
  0.1607013      -15.94277    
  0.1606774      -15.94267    
  0.1606535      -15.94255    
  0.1606297      -15.94241    
  0.1606058      -15.94226    
  0.1605820      -15.94209    
  0.1605581      -15.94191    
  0.1605342      -15.94170    
  0.1605104      -15.94148    
  0.1604865      -15.94124    
  0.1604627      -15.94097    
  0.1604388      -15.94069    
  0.1604149      -15.94038    
  0.1603911      -15.94006    
  0.1603672      -15.93970    
  0.1603434      -15.93933    
  0.1603195      -15.93892    
  0.1602956      -15.93849    
  0.1602718      -15.93802    
  0.1602479      -15.93753    
  0.1602241      -15.93699    
  0.1602002      -15.93642    
  0.1601763      -15.93580    
  0.1601525      -15.93514    
  0.1601286      -15.93442    
  0.1601048      -15.93365    
  0.1600809      -15.93280    
  0.1600570      -15.93187    
  0.1600332      -15.93084    
  0.1600093      -15.92969    
  0.1599855      -15.92838    
  0.1599616      -15.92685    
  0.1599377      -15.92498    
  0.1599139      -15.92246    
  0.1598900      -15.91610    
# alignement:   0.18714    


# TOV
# E/A  average,variance  rho0 average,variance
 -15.9396000   2.76002884E-02 0.161110997   1.70800090E-03 


# rho0          E/A
 0.159403     -15.9344    
 0.159437     -15.9292    
 0.159472     -15.9271    
 0.159506     -15.9255    
 0.159540     -15.9242    
 0.159574     -15.9231    
 0.159608     -15.9222    
 0.159642     -15.9213    
 0.159676     -15.9206    
 0.159711     -15.9199    
 0.159745     -15.9192    
 0.159779     -15.9186    
 0.159813     -15.9181    
 0.159847     -15.9176    
 0.159881     -15.9171    
 0.159916     -15.9166    
 0.159950     -15.9162    
 0.159984     -15.9158    
 0.160018     -15.9155    
 0.160052     -15.9151    
 0.160086     -15.9148    
 0.160121     -15.9145    
 0.160155     -15.9143    
 0.160189     -15.9140    
 0.160223     -15.9138    
 0.160257     -15.9136    
 0.160291     -15.9134    
 0.160326     -15.9132    
 0.160360     -15.9130    
 0.160394     -15.9128    
 0.160428     -15.9127    
 0.160462     -15.9126    
 0.160496     -15.9125    
 0.160531     -15.9124    
 0.160565     -15.9123    
 0.160599     -15.9122    
 0.160633     -15.9121    
 0.160667     -15.9121    
 0.160701     -15.9121    
 0.160736     -15.9120    
 0.160770     -15.9120    
 0.160804     -15.9120    
 0.160838     -15.9120    
 0.160872     -15.9121    
 0.160906     -15.9121    
 0.160941     -15.9121    
 0.160975     -15.9122    
 0.161009     -15.9122    
 0.161043     -15.9123    
 0.161077     -15.9124    
 0.161111     -15.9125    
 0.161145     -15.9126    
 0.161180     -15.9127    
 0.161214     -15.9129    
 0.161248     -15.9130    
 0.161282     -15.9132    
 0.161316     -15.9133    
 0.161350     -15.9135    
 0.161385     -15.9137    
 0.161419     -15.9139    
 0.161453     -15.9141    
 0.161487     -15.9143    
 0.161521     -15.9145    
 0.161555     -15.9148    
 0.161590     -15.9150    
 0.161624     -15.9153    
 0.161658     -15.9156    
 0.161692     -15.9159    
 0.161726     -15.9162    
 0.161760     -15.9165    
 0.161795     -15.9168    
 0.161829     -15.9172    
 0.161863     -15.9175    
 0.161897     -15.9179    
 0.161931     -15.9183    
 0.161965     -15.9187    
 0.162000     -15.9192    
 0.162034     -15.9196    
 0.162068     -15.9201    
 0.162102     -15.9205    
 0.162136     -15.9210    
 0.162170     -15.9216    
 0.162205     -15.9221    
 0.162239     -15.9227    
 0.162273     -15.9233    
 0.162307     -15.9239    
 0.162341     -15.9245    
 0.162375     -15.9252    
 0.162410     -15.9259    
 0.162444     -15.9267    
 0.162478     -15.9275    
 0.162512     -15.9283    
 0.162546     -15.9293    
 0.162580     -15.9302    
 0.162615     -15.9313    
 0.162649     -15.9325    
 0.162683     -15.9338    
 0.162717     -15.9352    
 0.162751     -15.9370    
 0.162785     -15.9393    
 0.162819     -15.9448    
 0.162785     -15.9501    
 0.162751     -15.9522    
 0.162717     -15.9537    
 0.162683     -15.9550    
 0.162649     -15.9561    
 0.162615     -15.9570    
 0.162580     -15.9579    
 0.162546     -15.9587    
 0.162512     -15.9594    
 0.162478     -15.9600    
 0.162444     -15.9606    
 0.162410     -15.9612    
 0.162375     -15.9617    
 0.162341     -15.9622    
 0.162307     -15.9626    
 0.162273     -15.9630    
 0.162239     -15.9634    
 0.162205     -15.9638    
 0.162170     -15.9641    
 0.162136     -15.9644    
 0.162102     -15.9647    
 0.162068     -15.9650    
 0.162034     -15.9652    
 0.162000     -15.9655    
 0.161965     -15.9657    
 0.161931     -15.9659    
 0.161897     -15.9661    
 0.161863     -15.9662    
 0.161829     -15.9664    
 0.161795     -15.9665    
 0.161760     -15.9667    
 0.161726     -15.9668    
 0.161692     -15.9669    
 0.161658     -15.9670    
 0.161624     -15.9670    
 0.161590     -15.9671    
 0.161555     -15.9671    
 0.161521     -15.9672    
 0.161487     -15.9672    
 0.161453     -15.9672    
 0.161419     -15.9672    
 0.161385     -15.9672    
 0.161350     -15.9672    
 0.161316     -15.9672    
 0.161282     -15.9671    
 0.161248     -15.9671    
 0.161214     -15.9670    
 0.161180     -15.9669    
 0.161145     -15.9668    
 0.161111     -15.9667    
 0.161077     -15.9666    
 0.161043     -15.9665    
 0.161009     -15.9664    
 0.160975     -15.9662    
 0.160941     -15.9661    
 0.160906     -15.9659    
 0.160872     -15.9657    
 0.160838     -15.9655    
 0.160804     -15.9654    
 0.160770     -15.9651    
 0.160736     -15.9649    
 0.160701     -15.9647    
 0.160667     -15.9644    
 0.160633     -15.9642    
 0.160599     -15.9639    
 0.160565     -15.9636    
 0.160531     -15.9634    
 0.160496     -15.9630    
 0.160462     -15.9627    
 0.160428     -15.9624    
 0.160394     -15.9620    
 0.160360     -15.9617    
 0.160326     -15.9613    
 0.160291     -15.9609    
 0.160257     -15.9605    
 0.160223     -15.9601    
 0.160189     -15.9596    
 0.160155     -15.9592    
 0.160121     -15.9587    
 0.160086     -15.9582    
 0.160052     -15.9577    
 0.160018     -15.9571    
 0.159984     -15.9566    
 0.159950     -15.9560    
 0.159916     -15.9554    
 0.159881     -15.9547    
 0.159847     -15.9540    
 0.159813     -15.9533    
 0.159779     -15.9525    
 0.159745     -15.9517    
 0.159711     -15.9509    
 0.159676     -15.9500    
 0.159642     -15.9490    
 0.159608     -15.9479    
 0.159574     -15.9468    
 0.159540     -15.9455    
 0.159506     -15.9440    
 0.159472     -15.9422    
 0.159437     -15.9399    
 0.159403     -15.9344    
# alignement:   3.51108E-02

 
